 xrayspectrum, 70kV, 17 anode angle with 2.5mmAl total filtration
 64, 0.006,0
0.007,	0
0.008,	0
0.009,	0
0.010,	0
0.011,	0
0.012,	0
0.013,  0.00001
0.014,  0.00008
0.015,  0.00032
0.016,  0.00089
0.017,  0.00196
0.018,  0.00364
0.019,  0.00594
0.020,  0.00876
0.021,  0.01178
0.022,  0.01490
0.023,  0.01798
0.024,  0.02091
0.025,  0.02359
0.026,  0.02594
0.027,  0.02796
0.028,  0.02962
0.029,  0.03094
0.030,  0.03193
0.031,  0.03242
0.032,  0.03261
0.033,  0.03261
0.034,  0.03245
0.035,  0.03214
0.036,  0.03171
0.037,  0.03118
0.038,  0.03056
0.039,  0.02987
0.040,  0.02912
0.041,  0.02824
0.042,  0.02731
0.043,  0.02636
0.044,  0.02540
0.045,  0.02443
0.046,  0.02346
0.047,  0.02248
0.048,  0.02150
0.049,  0.02052
0.050,  0.01954
0.051,  0.01854
0.052,  0.01753
0.053,  0.01654
0.054,  0.01555
0.055,  0.01457
0.056,  0.01359
0.057,  0.01263
0.058,  0.01167
0.059,  0.01077
0.060,  0.00986
0.061,  0.00884
0.062,  0.00790
0.063,  0.00698
0.064,  0.00607
0.065,  0.00516
0.066,  0.00427
0.067,  0.00340
0.068,  0.00256
0.069,  0.00167
0.070,  0.00084